KEV,INTENSITY
0.4048,4.9674
0.4127,4.9504
0.4206,4.927
0.4286,4.9065
0.4365,4.8833
0.4444,4.8625
0.4524,4.8435
0.4603,4.822
0.4683,4.7984
0.4762,4.7745
0.4841,4.7464
0.4921,4.7313
0.5,4.7078
0.5079,4.6807
0.5159,4.6561
0.5238,4.6308
0.5317,4.605
0.5397,4.5863
0.5476,4.5601
0.5556,4.5384
0.5635,4.5144
0.5714,4.4909
0.5794,4.4619
0.5873,4.4391
0.5952,4.4137
0.6032,4.3978
0.6111,4.3743
0.619,4.3558
0.627,4.3298
0.6349,4.303
0.6429,4.283
0.6508,4.2555
0.6587,4.2297
0.6667,4.2101
0.6746,4.1892
0.6825,4.1633
0.6905,4.14
0.6984,4.1183
0.7063,4.096
0.7143,4.0683
0.7222,4.0449
0.7302,4.0278
0.7381,4.0062
0.746,3.9803
0.754,3.9598
0.7619,3.936
0.7698,3.9183
0.7778,3.8928
0.7857,3.8671
0.7937,3.8557
0.8016,3.8293
0.8095,3.8119
0.8175,3.791
0.8254,3.7701
0.8333,3.7517
0.8413,3.7323
0.8492,3.7068
0.8571,3.6925
0.8651,3.6733
0.873,3.6556
0.881,3.6359
0.8889,3.611
0.8968,3.5962
0.9048,3.5857
0.9127,3.5591
0.9206,3.5545
0.9286,3.527
0.9365,3.5094
0.9444,3.4916
0.9524,3.4786
0.9603,3.4566
0.9683,3.4437
0.9762,3.4294
0.9841,3.4216
0.9921,3.3939
1,3.3835
1.0079,3.3738
1.0159,3.3456
1.0238,3.3457
1.0317,3.3267
1.0397,3.3221
1.0476,3.3006
1.0556,3.2845
1.0635,3.2679
1.0714,3.2465
1.0794,3.2473
1.0873,3.2305
1.0952,3.2329
1.1032,3.2124
1.1111,3.1999
1.119,3.1824
1.127,3.1852
1.1349,3.1659
1.1429,3.1491
1.1508,3.1433
1.1587,3.1343
1.1667,3.1219
1.1746,3.1096
1.1825,3.1057
1.1905,3.0759
1.1984,3.0745
1.2063,3.0799
1.2143,3.0575
1.2222,3.0452
1.2302,3.0373
1.2381,3.0423
1.246,3.0138
1.254,3.0048
1.2619,2.9986
1.2698,2.9868
1.2778,2.9796
1.2857,2.9744
1.2937,2.9611
1.3016,2.9533
1.3095,2.9487
1.3175,2.9291
1.3254,2.9335
1.3333,2.9128
1.3413,2.9102
1.3492,2.893
1.3571,2.8609
1.3651,2.8373
1.373,2.8481
1.381,2.8387
1.3889,2.8357
1.3968,2.8388
1.4048,2.8083
1.4127,2.822
1.4206,2.7982
1.4286,2.8184
1.4365,2.8004
1.4444,2.802
1.4524,2.7828
1.4603,2.7708
1.4683,2.764
1.4762,2.751
1.4841,2.7539
1.4921,2.7345
1.5,2.7292
1.5079,2.7162
1.5159,2.7043
1.5238,2.7053
1.5317,2.6941
1.5397,2.6759
1.5476,2.6834
1.5556,2.685
1.5635,2.6724
1.5714,2.6613
1.5794,2.6723
1.5873,2.6351
1.5952,2.6447
1.6032,2.6381
1.6111,2.6211
1.619,2.6087
1.627,2.6346
1.6349,2.6225
1.6429,2.6208
1.6508,2.6072
1.6587,2.5814
1.6667,2.5666
1.6746,2.5738
1.6825,2.5532
1.6905,2.5721
1.6984,2.5584
1.7063,2.5286
1.7143,2.5474
1.7222,2.5264
1.7302,2.5267
1.7381,2.5307
1.746,2.5452
1.754,2.52
1.7619,2.5186
1.7698,2.495
1.7778,2.4799
1.7857,2.4897
1.7937,2.4741
1.8016,2.4827
1.8095,2.4735
1.8175,2.4452
1.8254,2.4469
1.8333,2.4315
1.8413,2.4401
1.8492,2.4253
1.8571,2.4138
1.8651,2.418
1.873,2.4268
1.881,2.4215
1.8889,2.3885
1.8968,2.3952
1.9048,2.4143
1.9127,2.3839
1.9206,2.3775
1.9286,2.3719
1.9365,2.3789
1.9444,2.3586
1.9524,2.3514
1.9603,2.3575
1.9683,2.3625
1.9762,2.3458
1.9841,2.3276
1.9921,2.3489
2,2.3399
2.0079,2.3172
2.0159,2.3114
2.0238,2.2902
2.0317,2.292
2.0397,2.3037
2.0476,2.2609
2.0556,2.2499
2.0635,2.2854
2.0714,2.2728
2.0794,2.2669
2.0873,2.253
2.0952,2.2398
2.1032,2.2466
2.1111,2.2232
2.119,2.2559
2.127,2.2519
2.1349,2.2253
2.1429,2.2141
2.1508,2.1942
2.1587,2.2303
2.1667,2.202
2.1746,2.2017
2.1825,2.2008
2.1905,2.1945
2.1984,2.1908
2.2063,2.1618
2.2143,2.1979
2.2222,2.1299
2.2302,2.1759
2.2381,2.1673
2.246,2.1459
2.254,2.1369
2.2619,2.1634
2.2698,2.1592
2.2778,2.1303
2.2857,2.1065
2.2937,2.1359
2.3016,2.1134
2.3095,2.1222
2.3175,2.1316
2.3254,2.089
2.3333,2.1024
2.3413,2.0956
2.3492,2.1234
2.3571,2.1059
2.3651,2.0791
2.373,2.0662
2.381,2.077
2.3889,2.0423
2.3968,2.0546
2.4048,2.0083
2.4127,2.0345
2.4206,2.0297
2.4286,2.0438
2.4365,2.0409
2.4444,2.0192
2.4524,2.0106
2.4603,2.0211
2.4683,2.0123
2.4762,2.0631
2.4841,1.9944
2.4921,2.0012
2.5,1.9977
2.5079,2.0289
2.5159,1.9907
2.5238,2.0104
2.5317,2.0127
2.5397,1.9859
2.5476,2.0382
2.5556,2.0202
2.5635,2.0101
2.5714,2.0066
2.5794,1.9936
2.5873,1.9771
2.5952,1.9979
2.6032,1.939
2.6111,1.9596
2.619,2.0026
2.627,2.0143
2.6349,1.9964
2.6429,1.9706
2.6508,1.9829
2.6587,1.9542
2.6667,1.964
2.6746,1.9613
2.6825,1.9912
2.6905,1.9742
2.6984,1.9738
2.7063,1.9513
2.7143,1.9216
2.7222,1.9839
2.7302,1.9589
2.7381,1.9692
2.746,1.9409
2.754,1.969
2.7619,1.9411
2.7698,1.9496
2.7778,1.942
2.7857,1.9103
2.7937,1.9765
2.8016,1.9391
2.8095,1.8912
2.8175,1.9075
2.8254,1.9126
2.8333,1.9481
2.8413,1.9567
2.8492,1.9213
2.8571,1.8994
2.8651,1.9075
2.873,1.9575
2.881,1.9538
2.8889,1.9074
2.8968,1.8848
2.9048,1.9466
2.9127,1.8811
2.9206,1.9342
2.9286,1.8826
2.9365,1.9156
2.9444,1.9043
2.9524,1.9038
2.9603,1.9036
2.9683,1.8839
2.9762,1.8458
2.9841,1.8623
2.9921,1.9026
3,1.9042
3.0079,1.8292
3.0159,1.8472
3.0238,1.8307
3.0317,1.875
3.0397,1.8784
3.0476,1.8715
3.0556,1.8912
3.0635,1.9077
3.0714,1.8444
3.0794,1.8438
3.0873,1.8914
3.0952,1.8915
3.1032,1.9316
3.1111,1.8958
3.119,1.8644
3.127,1.8933
3.1349,1.8698
3.1429,1.865
3.1508,1.8614
3.1587,1.8906
3.1667,1.8766
3.1746,1.8782
3.1825,1.9197
3.1905,1.9083
3.1984,1.9206
3.2063,1.9135
3.2143,1.9054
3.2222,1.9114
3.2302,1.9302
3.2381,1.9214
3.246,1.9064
3.254,1.9388
3.2619,1.9421
3.2698,1.9338
3.2778,1.9523
3.2857,1.9717
3.2937,1.9691
3.3016,1.9678
3.3095,1.9938
3.3175,1.9761
3.3254,1.9986
3.3333,2.0043
3.3413,1.979
3.3492,2.0439
3.3571,1.9655
3.3651,2.0571
3.373,2.0578
3.381,2.0153
3.3889,2.0373
3.3968,2.0325
3.4048,2.0416
3.4127,2.0809
3.4206,2.0879
3.4286,2.1058
3.4365,2.1392
3.4444,2.1231
3.4524,2.1384
3.4603,2.1761
3.4683,2.1438
3.4762,2.1742
3.4841,2.1695
3.4921,2.1886
3.5,2.1768
3.5079,2.1519
3.5159,2.2305
3.5238,2.2238
3.5317,2.2015
3.5397,2.2548
3.5476,2.2396
3.5556,2.2524
3.5635,2.2443
3.5714,2.2549
3.5794,2.2935
3.5873,2.3014
3.5952,2.2785
3.6032,2.2782
3.6111,2.2722
3.619,2.3188
3.627,2.3154
3.6349,2.2941
3.6429,2.316
3.6508,2.3113
3.6587,2.2759
3.6667,2.3092
3.6746,2.2868
3.6825,2.332
3.6905,2.3039
3.6984,2.3115
3.7063,2.2895
3.7143,2.3198
3.7222,2.301
3.7302,2.2892
3.7381,2.3016
3.746,2.295
3.754,2.2962
3.7619,2.2896
3.7698,2.309
3.7778,2.2819
3.7857,2.2448
3.7937,2.255
3.8016,2.2693
3.8095,2.2673
3.8175,2.2673
3.8254,2.2673
3.8333,2.256
3.8413,2.2802
3.8492,2.225
3.8571,2.227
3.8651,2.2012
3.873,2.213
3.881,2.2095
3.8889,2.1977
3.8968,2.1701
3.9048,2.214
3.9127,2.1928
3.9206,2.1769
3.9286,2.2046
3.9365,2.1332
3.9444,2.1447
3.9524,2.1674
3.9603,2.148
3.9683,2.14
3.9762,2.0993
3.9841,2.0685
3.9921,2.0824
4,2.0924
4.0079,2.0673
4.0159,2.122
4.0238,2.0395
4.0317,2.0614
4.0397,2.0255
4.0476,1.9984
4.0556,2.062
4.0635,2.0265
4.0714,2.0166
4.0794,2.0197
4.0873,1.9782
4.0952,1.984
4.1032,1.983
4.1111,2.0073
4.119,1.975
4.127,1.9421
4.1349,1.9768
4.1429,1.9183
4.1508,1.9824
4.1587,1.9366
4.1667,1.9338
4.1746,1.936
4.1825,1.919
4.1905,1.9421
4.1984,1.9686
4.2063,1.9179
4.2143,1.8965
4.2222,1.9116
4.2302,1.9032
4.2381,1.8503
4.246,1.9077
4.254,1.883
4.2619,1.8439
4.2698,1.8932
4.2778,1.9273
4.2857,1.9061
4.2937,1.9375
4.3016,1.8794
4.3095,1.8629
4.3175,1.9495
4.3254,1.8767
4.3333,1.8743
4.3413,1.8826
4.3492,1.8598
4.3571,1.8489
4.3651,1.8526
4.373,1.8215
4.381,1.8597
4.3889,1.9063
4.3968,1.8582
4.4048,1.8395
4.4127,1.8948
4.4206,1.8567
4.4286,1.9082
4.4365,1.8877
4.4444,1.879
4.4524,1.8756
4.4603,1.8379
4.4683,1.8719
4.4762,1.9
4.4841,1.8969
4.4921,1.8856
4.5,1.8446
4.5079,1.8369
4.5159,1.8647
4.5238,1.9078
4.5317,1.8692
4.5397,1.8569
4.5476,1.8986
4.5556,1.8702
4.5635,1.8633
4.5714,1.841
4.5794,1.8773
4.5873,1.8626
4.5952,1.9052
4.6032,1.8651
4.6111,1.8197
4.619,1.8509
4.627,1.8401
4.6349,1.8414
4.6429,1.8481
4.6508,1.8059
4.6587,1.8424
4.6667,1.8441
4.6746,1.8225
4.6825,1.8056
4.6905,1.8048
4.6984,1.786
4.7063,1.8698
4.7143,1.8106
4.7222,1.8167
4.7302,1.8323
4.7381,1.7405
4.746,1.8129
4.754,1.7565
4.7619,1.7979
4.7698,1.7657
4.7778,1.7707
4.7857,1.7397
4.7937,1.7549
4.8016,1.7652
4.8095,1.7444
4.8175,1.7574
4.8254,1.7555
4.8333,1.7391
4.8413,1.7438
4.8492,1.6984
4.8571,1.6784
4.8651,1.7417
4.873,1.7568
4.881,1.7052
4.8889,1.6948
4.8968,1.7122
4.9048,1.7191
4.9127,1.6937
4.9206,1.7128
4.9286,1.7749
4.9365,1.7089
4.9444,1.7166
4.9524,1.6289
4.9603,1.6922
4.9683,1.6134
4.9762,1.7102
4.9841,1.6943
4.9921,1.6457
5,1.6982
5.0079,1.7031
5.0159,1.6627
5.0238,1.7027
5.0317,1.65
5.0397,1.7305
5.0476,1.6403
5.0556,1.6586
5.0635,1.6594
5.0714,1.6625
5.0794,1.632
5.0873,1.6342
5.0952,1.6515
5.1032,1.6514
5.1111,1.6754
5.119,1.6613
5.127,1.6241
5.1349,1.6564
5.1429,1.6466
5.1508,1.6218
5.1587,1.6143
5.1667,1.6059
5.1746,1.6873
5.1825,1.6057
5.1905,1.6323
5.1984,1.6974
5.2063,1.6001
5.2143,1.5772
5.2222,1.642
5.2302,1.5969
5.2381,1.7117
5.246,1.6486
5.254,1.627
5.2619,1.6914
5.2698,1.594
5.2778,1.6451
5.2857,1.6184
5.2937,1.6605
5.3016,1.5816
5.3095,1.6257
5.3175,1.6664
5.3254,1.657
5.3333,1.7123
5.3413,1.6359
5.3492,1.6416
5.3571,1.6524
5.3651,1.6694
5.373,1.6929
5.381,1.6003
5.3889,1.6519
5.3968,1.6552
5.4048,1.575
5.4127,1.6091
5.4206,1.6193
5.4286,1.5739
5.4365,1.6227
5.4444,1.6345
5.4524,1.6494
5.4603,1.632
5.4683,1.6121
5.4762,1.6909
5.4841,1.6106
5.4921,1.6224
5.5,1.6441
5.5079,1.63
5.5159,1.6146
5.5238,1.6006
5.5317,1.6352
5.5397,1.6111
5.5476,1.5688
5.5556,1.6802
5.5635,1.7129
5.5714,1.6395
5.5794,1.6264
5.5873,1.6013
5.5952,1.5951
5.6032,1.64
5.6111,1.6981
5.619,1.5997
5.627,1.6922
5.6349,1.6496
5.6429,1.704
5.6508,1.6869
5.6587,1.6633
5.6667,1.6734
5.6746,1.6639
5.6825,1.6842
5.6905,1.6329
5.6984,1.647
5.7063,1.6836
5.7143,1.6264
5.7222,1.7353
5.7302,1.6421
5.7381,1.6928
5.746,1.7138
5.754,1.6869
5.7619,1.6583
5.7698,1.6928
5.7778,1.6755
5.7857,1.7438
5.7937,1.6705
5.8016,1.6987
5.8095,1.7069
5.8175,1.7307
5.8254,1.7307
5.8333,1.6903
5.8413,1.7569
5.8492,1.7572
5.8571,1.7102
5.8651,1.7397
5.873,1.7295
5.881,1.7366
5.8889,1.7594
5.8968,1.7551
5.9048,1.7897
5.9127,1.8412
5.9206,1.7789
5.9286,1.7558
5.9365,1.7781
5.9444,1.7868
5.9524,1.8561
5.9603,1.8087
5.9683,1.8271
5.9762,1.8308
5.9841,1.7792
5.9921,1.8055
6,1.8578
6.0079,1.8729
6.0159,1.8391
6.0238,1.8738
6.0317,1.9141
6.0397,1.9105
6.0476,1.8586
6.0556,1.9023
6.0635,1.898
6.0714,1.9106
6.0794,1.9544
6.0873,1.9225
6.0952,1.9716
6.1032,1.9159
6.1111,1.926
6.119,1.9706
6.127,1.9919
6.1349,1.9759
6.1429,2.0164
6.1508,1.9859
6.1587,2.0376
6.1667,2.0428
6.1746,2.0581
6.1825,2.0815
6.1905,2.091
6.1984,2.0762
6.2063,2.1122
6.2143,2.0857
6.2222,2.0858
6.2302,2.0423
6.2381,2.0776
6.246,2.1178
6.254,2.1468
6.2619,2.1173
6.2698,2.1717
6.2778,2.1198
6.2857,2.1919
6.2937,2.1631
6.3016,2.1832
6.3095,2.1887
6.3175,2.1823
6.3254,2.1879
6.3333,2.1928
6.3413,2.1941
6.3492,2.2073
6.3571,2.224
6.3651,2.1859
6.373,2.1982
6.381,2.2238
6.3889,2.2299
6.3968,2.2033
6.4048,2.2288
6.4127,2.2167
6.4206,2.1757
6.4286,2.1765
6.4365,2.2051
6.4444,2.2422
6.4524,2.2117
6.4603,2.2016
6.4683,2.2462
6.4762,2.2177
6.4841,2.2022
6.4921,2.2489
6.5,2.2424
6.5079,2.2558
6.5159,2.2407
6.5238,2.2495
6.5317,2.2393
6.5397,2.2757
6.5476,2.2467
6.5556,2.2631
6.5635,2.2852
6.5714,2.261
6.5794,2.2417
6.5873,2.2744
6.5952,2.2318
6.6032,2.2588
6.6111,2.2787
6.619,2.2427
6.627,2.2331
6.6349,2.2629
6.6429,2.2758
6.6508,2.2571
6.6587,2.2756
6.6667,2.2842
6.6746,2.2744
6.6825,2.2726
6.6905,2.2784
6.6984,2.2842
6.7063,2.2864
6.7143,2.2548
6.7222,2.2871
6.7302,2.2897
6.7381,2.2916
6.746,2.3196
6.754,2.302
6.7619,2.3043
6.7698,2.3217
6.7778,2.3286
6.7857,2.3192
6.7937,2.3185
6.8016,2.3269
6.8095,2.3056
6.8175,2.3127
6.8254,2.3265
6.8333,2.3304
6.8413,2.3359
6.8492,2.329
6.8571,2.2974
6.8651,2.3447
6.873,2.3215
6.881,2.3082
6.8889,2.321
6.8968,2.3321
6.9048,2.3098
6.9127,2.3448
6.9206,2.3405
6.9286,2.3331
6.9365,2.3489
6.9444,2.326
6.9524,2.3238
6.9603,2.3351
6.9683,2.3491
6.9762,2.3373
6.9841,2.2883
6.9921,2.3041
7,2.3357
7.0079,2.2755
7.0159,2.3069
7.0238,2.2764
7.0317,2.3004
7.0397,2.2892
7.0476,2.3116
7.0556,2.2725
7.0635,2.2593
7.0714,2.2724
7.0794,2.254
7.0873,2.2592
7.0952,2.266
7.1032,2.2437
7.1111,2.2511
7.119,2.2145
7.127,2.2255
7.1349,2.2452
7.1429,2.2192
7.1508,2.1567
7.1587,2.2139
7.1667,2.1267
7.1746,2.1611
7.1825,2.1476
7.1905,2.1176
7.1984,2.1623
7.2063,2.1298
7.2143,2.1056
7.2222,2.0971
7.2302,2.1233
7.2381,2.121
7.246,2.0722
7.254,2.0655
7.2619,2.0959
7.2698,2.0434
7.2778,2.0383
7.2857,2.0537
7.2937,1.9976
7.3016,2.0272
7.3095,2.0167
7.3175,1.9896
7.3254,1.9984
7.3333,2.012
7.3413,1.9742
7.3492,1.9401
7.3571,1.961
7.3651,1.9277
7.373,1.9233
7.381,1.8872
7.3889,1.9089
7.3968,1.88
7.4048,1.8729
7.4127,1.8173
7.4206,1.7777
7.4286,1.7758
7.4365,1.8485
7.4444,1.8017
7.4524,1.7697
7.4603,1.829
7.4683,1.7493
7.4762,1.7623
7.4841,1.7342
7.4921,1.6986
7.5,1.7401
7.5079,1.7536
7.5159,1.6502
7.5238,1.7156
7.5317,1.7075
7.5397,1.7341
7.5476,1.6197
7.5556,1.7391
7.5635,1.6318
7.5714,1.6626
7.5794,1.6726
7.5873,1.6638
7.5952,1.6321
7.6032,1.696
7.6111,1.6437
7.619,1.6133
7.627,1.6085
7.6349,1.5579
7.6429,1.6432
7.6508,1.5993
7.6587,1.5809
7.6667,1.6208
7.6746,1.5706
7.6825,1.6153
7.6905,1.5592
7.6984,1.5322
7.7063,1.5576
7.7143,1.6124
7.7222,1.5395
7.7302,1.569
7.7381,1.5761
7.746,1.5347
7.754,1.4799
7.7619,1.5855
7.7698,1.5703
7.7778,1.4884
7.7857,1.5491
7.7937,1.5466
7.8016,1.5256
7.8095,1.5204
7.8175,1.5468
7.8254,1.3788
7.8333,1.4386
7.8413,1.5039
7.8492,1.4326
7.8571,1.4061
7.8651,1.4178
7.873,1.3706
7.881,1.4153
7.8889,1.3904
7.8968,1.3493
7.9048,1.3873
7.9127,1.3813
7.9206,1.4366
7.9286,1.3883
7.9365,1.3515
7.9444,1.4235
7.9524,1.3167
7.9603,1.3304
7.9683,1.2487
7.9762,1.2801
7.9841,1.3045
7.9921,1.2808
8,1.3215
8.0079,1.3067
8.0159,1.3485
8.0238,1.2277
8.0317,1.3044
8.0397,1.3215
8.0476,1.2196
8.0556,1.2809
8.0635,1.152
8.0714,1.1717
8.0794,1.2553
8.0873,1.1426
8.0952,1.1866
8.1032,1.2196
8.1111,1.0923
8.119,1.1815
8.127,1.0137
8.1349,1.1606
8.1429,1.1456
8.1508,1.1083
8.1587,1.1857
8.1667,0.9887
8.1746,1.1359
8.1825,1.0032
8.1905,1.1185
8.1984,1.0976
8.2063,0.9225
8.2143,0.8336
8.2222,1.1405
8.2302,1.0827
8.2381,1.0458
8.246,1.0706
8.254,0.9142
8.2619,0.8869
8.2698,0.8721
8.2778,1.0616
8.2857,1.0725
8.2937,1.1701
8.3016,0.9048
8.3095,0.9759
8.3175,1.0768
8.3254,0.9384
8.3333,0.9613
8.3413,0.9215
8.3492,0.9886
8.3571,1.0831
8.3651,0.8312
8.373,0.976
8.381,1.0425
8.3889,0.9614
8.3968,1.002
8.4048,0.985
8.4127,1.0207
8.4206,0.9487
8.4286,0.9433
8.4365,0.9811
8.4444,1.0126
8.4524,0.9541
8.4603,1.0606
8.4683,0.7896
8.4762,1.0761
8.4841,0.7456
8.4921,0.8796
8.5,0.9401
8.5079,1.0778
8.5159,0.8891
8.5238,0.9747
8.5317,0.7785
8.5397,0.8504
8.5476,1.024
8.5556,0.8409
8.5635,1.0282
8.5714,0.5951
8.5794,0.7196
8.5873,0.8735
8.5952,0.8336
8.6032,0.8776
8.6111,0.8708
8.619,0.8961
8.627,0.7637
8.6349,0.8869
8.6429,0.7049
8.6508,0.7826
8.6587,0.8504
8.6667,0.8607
8.6746,0.8554
8.6825,0.8024
8.6905,0.6945
8.6984,0.8944
8.7063,0.7865
8.7143,0.9643
8.7222,0.7113
8.7302,0.7258
8.7381,0.9599
8.746,0.866
8.754,0.9159
8.7619,0.8261
8.7698,0.9307
8.7778,0.8846
8.7857,0.7988
8.7937,0.7865
8.8016,0.7509
8.8095,0.801
8.8175,0.9047
8.8254,0.7654
8.8333,0.8094
8.8413,0.6558
8.8492,0.8796
8.8571,0.8869
8.8651,0.7113
8.873,0.6945
8.881,0.7865
8.8889,0.7949
8.8968,0.7656
8.9048,0.9273
8.9127,0.5876
8.9206,0.9133
8.9286,0.7386
8.9365,0.7068
8.9444,0.8336
8.9524,0.7258
8.9603,0.7553
8.9683,0.3891
8.9762,0.6831
8.9841,0.8556
8.9921,0.6316
9,0.7311
9.0079,0.4811
9.0159,0.7311
9.0238,0.7311
9.0317,0.7188
9.0397,0.8138
9.0476,0.5396
9.0556,0.6148
9.0635,0.5251
9.0714,0.4688
9.0794,0.8451
9.0873,0.5836
9.0952,0.7584
9.1032,0.8306
9.1111,0.6558
9.119,0.5638
9.127,0.5742
9.1349,0.6461
9.1429,0.5995
9.1508,0.7271
9.1587,0.6945
9.1667,0.767
9.1746,0.5084
9.1825,0.544
9.1905,0.5084
9.1984,0.5396
9.2063,0.5
9.2143,0.4643
9.2222,0.4643
9.2302,0.5951
9.2381,0.6901
9.246,0.6703
9.254,0.6316
9.2619,0.4331
9.2698,0.7213
9.2778,0.6276
9.2857,0.4771
9.2937,0.5123
9.3016,0.4515
9.3095,0.6246
9.3175,0.7068
9.3254,0.6148
9.3333,0.6148
9.3413,0.7068
9.3492,0.5563
9.3571,0.7846
9.3651,0.5198
9.373,0.6633
9.381,0.6263
9.3889,0.58
9.3968,0.54
9.4048,0.5
9.4127,0.5084
9.4206,0.437
9.4286,0.5268
9.4365,0.5638
9.4444,0.5198
9.4524,0.5268
9.4603,0.4886
9.4683,0.6078
9.4762,0.7654
9.4841,0.3891
9.4921,0.6263
9.5,0.5453
9.5079,0.4643
9.5159,0.7271
9.5238,0.6014
9.5317,0.4758
9.5397,0.3693
9.5476,0.6589
9.5556,0.6976
9.5635,0.7364
9.5714,0.3763
9.5794,0.5268
9.5873,0.4956
9.5952,0.4203
9.6032,0.4423
9.6111,0.4643
9.619,0.4643
9.627,0.7865
9.6349,0.6873
9.6429,0.588
9.6508,0.4688
9.6587,0.5396
9.6667,0.636
9.6746,0.7196
9.6825,0.6703
9.6905,0.4005
9.6984,0.7068
9.7063,0.5951
9.7143,0.5893
9.7222,0.5836
9.7302,0.6316
9.7381,0.5198
9.746,0.5951
9.754,0.68
9.7619,0.7782
9.7698,0.7352
9.7778,0.6923
9.7857,0.4203
9.7937,0.4956
9.8016,0.2258
9.8095,0.6945
9.8175,0.5876
9.8254,0.3891
9.8333,0.5326
9.8413,0.5708
9.8492,0.5836
9.8571,0.6461
9.8651,0.7143
9.873,0.6078
9.881,0.4058
9.8889,0.4643
9.8968,0.6193
9.9048,0.4133
9.9127,0.544
9.9206,0.6004
9.9286,0.4811
9.9365,0.6444
9.9444,0.4758
9.9524,0.5396
9.9603,0.4445
9.9683,0.5
9.9762,0.25
9.9841,0.5951
9.9921,0.6078
10,0.5123
10.0079,0.6148
10.0159,0.5084
10.0238,0.5638
10.0317,0.4613
10.0397,0.5876
10.0476,0.4005
10.0556,0.4758
10.0635,0.544
10.0714,0.5836
10.0794,0.4445
10.0873,0.772
10.0952,0.5708
10.1032,0.5053
10.1111,0.3891
10.119,0.6831
10.127,0.4515
10.1349,0.5198
10.1429,0.3693
10.1508,0.3693
10.1587,0.5084
10.1667,0.4956
10.1746,0.4544
10.1825,0.4133
10.1905,0.3451
10.1984,0.3451
10.2063,0.5123
10.2143,0.3763
10.2222,0.4643
10.2302,0.4005
10.2381,0.5638
10.246,0.5638
10.254,0.3763
10.2619,0.5039
10.2698,0.6316
10.2778,0.3891
10.2857,0.3578
10.2937,0.3138
10.3016,0.4445
10.3095,0.4445
10.3175,0.6004
10.3254,0.6004
10.3333,0.5396
10.3413,0.5396
10.3492,0.6633
10.3571,0.4331
10.3651,0.5638
10.373,0.5951
10.381,0.3138
10.3889,0.6589
10.3968,0.4515
10.4048,0.4515
10.4127,0.5251
10.4206,0.4613
10.4286,0.3451
10.4365,0.5708
10.4444,0.4445
10.4524,0.3138
10.4603,0.5638
10.4683,0.5951
10.4762,0.2698
10.4841,0.4069
10.4921,0.544
10.5,0.4758
10.5079,0.5198
10.5159,0.4005
