KEV,INTENSITY
0.40179,4.729
0.40967,4.6874
0.41755,4.6504
0.42543,4.6102
0.4333,4.5709
0.44118,4.5326
0.44906,4.4794
0.45694,4.4583
0.46482,4.4273
0.4727,4.3869
0.48057,4.3503
0.48845,4.3074
0.49633,4.2681
0.50421,4.2388
0.51209,4.1948
0.51997,4.1716
0.52784,4.1382
0.53572,4.099
0.5436,4.0747
0.55148,4.0345
0.55936,4.0004
0.56724,3.9729
0.57511,3.9321
0.58299,3.9268
0.59087,3.8965
0.59875,3.8517
0.60663,3.8231
0.61451,3.7839
0.62238,3.7625
0.63026,3.7272
0.63814,3.7043
0.64602,3.6989
0.6539,3.6622
0.66177,3.6467
0.66965,3.6078
0.67753,3.5826
0.68541,3.5813
0.69329,3.5528
0.70117,3.5266
0.70904,3.514
0.71692,3.4886
0.7248,3.4564
0.73268,3.4448
0.74056,3.3518
0.74844,3.2693
0.75631,3.3304
0.76419,3.357
0.77207,3.3675
0.77995,3.3621
0.78783,3.3336
0.79571,3.3349
0.80358,3.3191
0.81146,3.301
0.81934,3.2728
0.82722,3.27
0.8351,3.2608
0.84297,3.1989
0.85085,3.2
0.85873,3.2156
0.86661,3.1901
0.87449,3.1844
0.88237,3.1694
0.89024,3.1361
0.89812,3.131
0.906,3.1377
0.91388,3.1072
0.92176,3.1136
0.92964,3.0927
0.93751,3.1096
0.94539,3.081
0.95327,3.0535
0.96115,3.0386
0.96903,3.033
0.97691,2.9827
0.98478,2.989
0.99266,3.0043
1.00054,2.9877
1.00842,2.96
1.0163,2.9538
1.02418,2.9375
1.03205,2.9217
1.03993,2.9258
1.04781,2.8681
1.05569,2.9154
1.06357,2.8627
1.07144,2.8627
1.07932,2.8675
1.0872,2.8351
1.09508,2.8357
1.10296,2.8222
1.11084,2.7938
1.11871,2.837
1.12659,2.7825
1.13447,2.7973
1.14235,2.8035
1.15023,2.7536
1.15811,2.7604
1.16598,2.7701
1.17386,2.7202
1.18174,2.7694
1.18962,2.7427
1.1975,2.7292
1.20538,2.734
1.21325,2.683
1.22113,2.6964
1.22901,2.7143
1.23689,2.6946
1.24477,2.6503
1.25265,2.7202
1.26052,2.6767
1.2684,2.6561
1.27628,2.6848
1.28416,2.6946
1.29204,2.6375
1.29991,2.6609
1.30779,2.683
1.31567,2.6609
1.32355,2.6599
1.33143,2.6149
1.33931,2.6561
1.34718,2.6395
1.35506,2.6294
1.36294,2.6464
1.37082,2.6637
1.3787,2.6191
1.38658,2.6365
1.39445,2.6085
1.40233,2.616
1.41021,2.6253
1.41809,2.5682
1.42597,2.6435
1.43385,2.6425
1.44172,2.6335
1.4496,2.5977
1.45748,2.6325
1.46536,2.5899
1.47324,2.6375
1.48111,2.618
1.48899,2.5955
1.49687,2.5717
1.50475,2.5855
1.51263,2.6117
1.52051,2.5551
1.52838,2.5224
1.53626,2.5391
1.54414,2.5453
1.55202,2.5647
1.5599,2.5224
1.56778,2.5237
1.57565,2.4914
1.58353,2.5119
1.59141,2.5011
1.59929,2.525
1.60717,2.4928
1.61505,2.5237
1.62292,2.415
1.6308,2.4669
1.63868,2.4409
1.64656,2.3979
1.65444,2.4281
1.66232,2.4669
1.67019,2.4314
1.67807,2.3838
1.68595,2.3711
1.69383,2.4133
1.70171,2.3802
1.70958,2.3075
1.71746,2.1761
1.72534,2.2279
1.73322,2.2765
1.7411,2.29
1.74898,2.3054
1.75685,2.3118
1.76473,2.3541
1.77261,2.3118
1.78049,2.3075
1.78837,2.3181
1.79625,2.2504
1.80412,2.2672
1.812,2.29
1.81988,2.2989
1.82776,2.2455
1.83564,2.2175
1.84352,2.2788
1.85139,2.2068
1.85927,2.2695
1.86715,2.1818
1.87503,2.2405
1.88291,2.1959
1.89078,2.2577
1.89866,2.1523
1.90654,2.2095
1.91442,2.2253
1.9223,2.1959
1.93018,2.1761
1.93805,2.2041
1.94593,2.1959
1.95381,2.1818
1.96169,2.1239
1.96957,2.1553
1.97745,2.1004
1.98532,2.0755
1.9932,2.0374
2.00108,2.1271
2.00896,2.1173
2.01684,2.1875
2.02472,2.0899
2.03259,2.0969
2.04047,2.1931
2.04835,2.1367
2.05623,2.0531
2.06411,2.0682
2.07199,2.0934
2.07986,2.0645
2.08774,2.0792
2.09562,2.0828
2.1035,2.1239
2.11138,2.0607
2.11925,2.1106
2.12713,2.0607
2.13501,2.0043
2.14289,2.1004
2.15077,2.0043
2.15865,2.0086
2.16652,1.9731
2.1744,1.9494
2.18228,2.0828
2.19016,2.0253
2.19804,2.0128
2.20592,1.9395
2.21379,1.9956
2.22167,2.0212
2.22955,2.0043
2.23743,1.9868
2.24531,2.017
2.25319,2.0374
2.26106,1.8921
2.26894,1.9294
2.27682,1.9494
2.2847,1.9395
2.29258,1.9395
2.30046,1.9294
2.30833,1.8808
2.31621,1.8513
2.32409,1.9395
2.33197,1.9638
2.33985,1.8976
2.34772,1.9395
2.3556,1.9395
2.36348,1.959
2.37136,1.8692
2.37924,2.0043
2.38712,1.9345
2.39499,1.9638
2.40287,1.8388
2.41075,1.8976
2.41863,1.9445
2.42651,1.8921
2.43439,1.9395
2.44226,1.8451
2.45014,1.8808
2.45802,1.9345
2.4659,1.8692
2.47378,1.7634
2.48166,1.8865
2.48953,1.8388
2.49741,1.8751
2.50529,1.8692
2.51317,1.8451
2.52105,1.7709
2.52892,1.7924
2.5368,1.7853
2.54468,1.8808
2.55256,1.9085
2.56044,1.8195
2.56832,1.7782
2.57619,1.8388
2.58407,1.7853
2.59195,1.7404
2.59983,1.7482
2.60771,1.8513
2.61559,1.8388
2.62346,1.7243
2.63134,1.8062
2.63922,1.7482
2.6471,1.7993
2.65498,1.7076
2.66286,1.7404
2.67073,1.8573
2.67861,1.8633
2.68649,1.7482
2.69437,1.7404
2.70225,1.7853
2.71013,1.7924
2.718,1.6628
2.72588,1.6902
2.73376,1.7782
2.74164,1.6812
2.74952,1.5798
2.75739,1.6902
2.76527,1.7076
2.77315,1.7482
2.78103,1.7559
2.78891,1.7404
2.79679,1.6435
2.80466,1.8261
2.81254,1.7634
2.82042,1.8062
2.8283,1.7634
2.83618,1.8325
2.84406,1.8261
2.85193,1.7782
2.85981,1.7924
2.86769,1.6812
2.87557,1.7559
2.88345,1.7993
2.89133,1.7324
2.8992,1.8751
2.90708,1.8633
2.91496,1.8751
2.92284,1.9191
2.93072,1.8129
2.93859,1.8513
2.94647,2.0043
2.95435,1.9294
2.96223,1.8325
2.97011,1.8692
2.97799,1.8808
2.98586,1.8573
2.99374,1.8921
3.00162,1.9138
3.0095,1.8808
3.01738,1.8129
3.02526,1.7324
3.03313,1.7634
3.04101,1.8325
3.04889,1.8921
3.05677,1.9031
3.06465,1.9542
3.07253,1.8692
3.0804,1.8751
3.08828,1.8573
3.09616,1.8808
3.10404,1.9638
3.11192,1.9138
3.1198,1.7782
3.12767,1.8921
3.13555,1.9445
3.14343,1.8513
3.15131,1.9956
3.15919,1.8976
3.16706,1.8692
3.17494,1.959
3.18282,1.9243
3.1907,1.9031
3.19858,1.9345
3.20646,1.9294
3.21433,2.0086
3.22221,1.959
3.23009,1.9085
3.23797,1.9191
3.24585,2.017
3.25373,2.0212
3.2616,1.9912
3.26948,1.9731
3.27736,1.9494
3.28524,2.0043
3.29312,2.0334
3.301,2.0334
3.30887,2.0453
3.31675,2.0492
3.32463,2.017
3.33251,2.0453
3.34039,2.0334
3.34827,1.9542
3.35614,2.1139
3.36402,2.0934
3.3719,2.0719
3.37978,2.0755
3.38766,2.1303
3.39553,2.1367
3.40341,2.1367
3.41129,2.0899
3.41917,2.1038
3.42705,2.1553
3.43493,2.0899
3.4428,2.1673
3.45068,2.2279
3.45856,2.1732
3.46644,2.2068
3.47432,2.2227
3.4822,2.2122
3.49007,2.2989
3.49795,2.29
3.50583,2.238
3.51371,2.2742
3.52159,2.2788
3.52947,2.3385
3.53734,2.3243
3.54522,2.3464
3.5531,2.3747
3.56098,2.3201
3.56886,2.3636
3.57673,2.4116
3.58461,2.4166
3.59249,2.3766
3.60037,2.3909
3.60825,2.4654
3.61613,2.4472
3.624,2.4472
3.63188,2.4728
3.63976,2.4265
3.64764,2.4594
3.65552,2.4786
3.6634,2.4533
3.67127,2.5038
3.67915,2.4281
3.68703,2.3927
3.69491,2.3284
3.70279,2.3054
3.71067,2.4249
3.71854,2.4609
3.72642,2.4183
3.7343,2.4814
3.74218,2.4914
3.75006,2.4564
3.75794,2.4871
3.76581,2.4533
3.77369,2.4609
3.78157,2.4548
3.78945,2.4487
3.79733,2.4265
3.8052,2.4099
3.81308,2.3784
3.82096,2.4281
3.82884,2.3856
3.83672,2.4048
3.8446,2.3838
3.85247,2.3201
3.86035,2.3909
3.86823,2.2648
3.87611,2.2923
3.88399,2.3464
3.89187,2.3784
3.89974,2.3541
3.90762,2.2355
3.9155,2.2765
3.92338,2.2878
3.93126,2.2553
3.93914,2.248
3.94701,2.3304
3.95489,2.2601
3.96277,2.1903
3.97065,2.2068
3.97853,2.1461
3.98641,2.1173
3.99428,2.2227
4.00216,2.179
4.01004,2.1553
4.01792,2.1584
4.0258,2.0934
4.03367,2.1139
4.04155,2.0682
4.04943,2.1461
4.05731,2.1303
4.06519,1.9777
4.07307,2.0792
4.08094,2.0934
4.08882,2.0253
4.0967,2.0492
4.10458,1.9823
4.11246,2
4.12034,2.0212
4.12821,1.9685
4.13609,1.9395
4.14397,2.0645
4.15185,1.9494
4.15973,1.9868
4.16761,1.8633
4.17548,1.9542
4.18336,1.9638
4.19124,1.9868
4.19912,1.9823
4.207,1.959
4.21487,1.9956
4.22275,1.9956
4.23063,1.8261
4.23851,1.8388
4.24639,1.9868
4.25427,1.9031
4.26214,1.699
4.27002,1.9823
4.2779,1.8921
4.28578,1.9638
4.29366,1.9138
4.30154,1.959
4.30941,1.8751
4.31729,1.8865
4.32517,1.9085
4.33305,1.9031
4.34093,1.9031
4.34881,1.9542
4.35668,1.8573
4.36456,1.8573
4.37244,2
4.38032,1.9085
4.3882,1.959
4.39608,1.9445
4.40395,1.8692
4.41183,1.9912
4.41971,1.9823
4.42759,1.9395
4.43547,1.9445
4.44334,2.0086
4.45122,2.0374
4.4591,1.9345
4.46698,1.9912
4.47486,1.9638
4.48274,1.9868
4.49061,1.9138
4.49849,2.017
4.50637,2
4.51425,2
4.52213,1.9777
4.53001,1.9542
4.53788,1.9395
4.54576,1.959
4.55364,1.8921
4.56152,2
4.5694,1.9823
4.57728,2.017
4.58515,2.0086
4.59303,1.9494
4.60091,2.0043
4.60879,2.0086
4.61667,1.9445
4.62454,1.9294
4.63242,1.8692
4.6403,2.017
4.64818,1.9542
4.65606,1.9731
4.66394,1.9542
4.67181,2.017
4.67969,1.8751
4.68757,1.9445
4.69545,1.6721
4.70333,1.7482
4.71121,1.8129
4.71908,1.8865
4.72696,1.8573
4.73484,1.8062
4.74272,1.8573
4.7506,1.8451
4.75848,1.8388
4.76635,1.8513
4.77423,1.8692
4.78211,1.7853
4.78999,1.7782
4.79787,1.8808
4.80575,1.7924
4.81362,1.7782
4.8215,1.8195
4.82938,1.7709
4.83726,1.7709
4.84514,1.8692
4.85301,1.7853
4.86089,1.8062
4.86877,1.8261
4.87665,1.8129
4.88453,1.6628
4.89241,1.7709
4.90028,1.7482
4.90816,1.7404
4.91604,1.7482
4.92392,1.7243
4.9318,1.7404
4.93968,1.7559
4.94755,1.7076
4.95543,1.7782
4.96331,1.7782
4.97119,1.716
4.97907,1.5911
4.98695,1.6628
4.99482,1.5682
5.0027,1.699
5.01058,1.7993
5.01846,1.6335
5.02634,1.6628
5.03422,1.6812
5.04209,1.699
5.04997,1.7482
5.05785,1.7853
5.06573,1.5911
5.07361,1.7709
5.08148,1.699
5.08936,1.6902
5.09724,1.699
5.10512,1.6721
5.113,1.6335
5.12088,1.6532
5.12875,1.6128
5.13663,1.6232
5.14451,1.7709
5.15239,1.699
5.16027,1.6812
5.16815,1.716
5.17602,1.7559
5.1839,1.6128
5.19178,1.5441
5.19966,1.6628
5.20754,1.7324
5.21542,1.7634
5.22329,1.5798
5.23117,1.6812
5.23905,1.6628
5.24693,1.6435
5.25481,1.6628
5.26268,1.7324
5.27056,1.5682
5.27844,1.6532
5.28632,1.7076
5.2942,1.6532
5.30208,1.5315
5.30995,1.6721
5.31783,1.6128
5.32571,1.7076
5.33359,1.7324
5.34147,1.7782
5.34935,1.5911
5.35722,1.6128
5.3651,1.5798
5.37298,1.7243
5.38086,1.6435
5.38874,1.6628
5.39662,1.7634
5.40449,1.7559
5.41237,1.6335
5.42025,1.5911
5.42813,1.7404
5.43601,1.6335
5.44389,1.6532
5.45176,1.5563
5.45964,1.6335
5.46752,1.6335
5.4754,1.7482
5.48328,1.6721
5.49115,1.6812
5.49903,1.6435
5.50691,1.7559
5.51479,1.6532
5.52267,1.7404
5.53055,1.6435
5.53842,1.699
5.5463,1.6721
5.55418,1.7324
5.56206,1.6902
5.56994,1.6232
5.57782,1.6902
5.58569,1.5682
5.59357,1.5911
5.60145,1.6628
5.60933,1.6435
5.61721,1.7782
5.62509,1.6435
5.63296,1.7482
5.64084,1.699
5.64872,1.6435
5.6566,1.6721
5.66448,1.7243
5.67235,1.7634
5.68023,1.716
5.68811,1.699
5.69599,1.7782
5.70387,1.7853
5.71175,1.7993
5.71962,1.6128
5.7275,1.6628
5.73538,1.6902
5.74326,1.699
5.75114,1.6812
5.75902,1.6812
5.76689,1.7243
5.77477,1.6721
5.78265,1.7924
5.79053,1.6435
5.79841,1.6721
5.80629,1.6812
5.81416,1.8388
5.82204,1.7634
5.82992,1.7993
5.8378,1.8388
5.84568,1.7559
5.85356,1.8388
5.86143,1.7782
5.86931,1.8921
5.87719,1.8513
5.88507,1.8513
5.89295,1.8751
5.90082,1.8513
5.9087,1.8513
5.91658,1.7324
5.92446,1.8976
5.93234,1.9445
5.94022,1.9638
5.94809,1.9395
5.95597,1.8921
5.96385,1.9031
5.97173,1.8865
5.97961,1.9243
5.98749,1.9494
5.99536,1.9243
6.00324,1.9294
6.01112,1.9685
6.019,1.9191
6.02688,1.9345
6.03476,1.9243
6.04263,1.9912
6.05051,2.0253
6.05839,1.9912
6.06627,2.0492
6.07415,1.9823
6.08203,2.0086
6.0899,2.0212
6.09778,2.1004
6.10566,2.0792
6.11354,2.0607
6.12142,2.0899
6.12929,2.1239
6.13717,2.1367
6.14505,2.1367
6.15293,2.143
6.16081,2.1239
6.16869,2.1875
6.17656,2.1818
6.18444,2.1903
6.19232,2.1931
6.2002,2.1959
6.20808,2.1732
6.21596,2.29
6.22383,2.3201
6.23171,2.2945
6.23959,2.2601
6.24747,2.2878
6.25535,2.3711
6.26323,2.3324
6.2711,2.301
6.27898,2.3483
6.28686,2.3201
6.29474,2.3424
6.30262,2.3222
6.31049,2.3541
6.31837,2.4031
6.32625,2.3747
6.33413,2.3522
6.34201,2.4249
6.34989,2.3945
6.35776,2.4216
6.36564,2.3636
6.37352,2.3766
6.3814,2.3617
6.38928,2.3909
6.39716,2.4099
6.40503,2.4742
6.41291,2.4609
6.42079,2.4728
6.42867,2.4683
6.43655,2.4065
6.44443,2.4133
6.4523,2.4065
6.46018,2.382
6.46806,2.4609
6.47594,2.4298
6.48382,2.4378
6.4917,2.4082
6.49957,2.4249
6.50745,2.4955
6.51533,2.433
6.52321,2.3874
6.53109,2.4472
6.53896,2.4472
6.54684,2.4031
6.55472,2.42
6.5626,2.4065
6.57048,2.3927
6.57836,2.4099
6.58623,2.4654
6.59411,2.3856
6.60199,2.433
6.60987,2.4048
6.61775,2.4409
6.62563,2.4624
6.6335,2.415
6.64138,2.4713
6.64926,2.4166
6.65714,2.4216
6.66502,2.4548
6.6729,2.4249
6.68077,2.4116
6.68865,2.3945
6.69653,2.4456
6.70441,2.433
6.71229,2.4472
6.72016,2.4683
6.72804,2.4281
6.73592,2.3054
6.7438,2.2601
6.75168,2.3766
6.75956,2.4425
6.76743,2.4518
6.77531,2.4728
6.78319,2.433
6.79107,2.4456
6.79895,2.4216
6.80683,2.4314
6.8147,2.4456
6.82258,2.4624
6.83046,2.4871
6.83834,2.4548
6.84622,2.4298
6.8541,2.4728
6.86197,2.4942
6.86985,2.4594
6.87773,2.4698
6.88561,2.5092
6.89349,2.4654
6.90137,2.5551
6.90924,2.4857
6.91712,2.5092
6.925,2.4548
6.93288,2.4487
6.94076,2.4624
6.94863,2.4683
6.95651,2.5024
6.96439,2.4914
6.97227,2.4533
6.98015,2.5145
6.98803,2.4393
6.9959,2.4564
7.00378,2.4579
7.01166,2.4409
7.01954,2.4969
7.02742,2.4742
7.0353,2.4594
7.04317,2.4594
7.05105,2.4871
7.05893,2.4518
7.06681,2.4082
7.07469,2.382
7.08257,2.4548
7.09044,2.4099
7.09832,2.4594
7.1062,2.3711
7.11408,2.3962
7.12196,2.3979
7.12984,2.3617
7.13771,2.3579
7.14559,2.3424
7.15347,2.3222
7.16135,2.3032
7.16923,2.3385
7.1771,2.3032
7.18498,2.238
7.19286,2.2455
7.20074,2.1847
7.20862,2.2304
7.2165,2.2455
7.22437,2.2648
7.23225,2.1239
7.24013,2.1492
7.24801,2.2014
7.25589,2.1492
7.26377,2.1553
7.27164,2.0934
7.27952,2.143
7.2874,2.0334
7.29528,2.1239
7.30316,2.1038
7.31104,2.017
7.31891,1.9956
7.32679,2.017
7.33467,2.0719
7.34255,2.0086
7.35043,2.0253
7.3583,1.9777
7.36618,2.0043
7.37406,1.9868
7.38194,1.8513
7.38982,1.9138
7.3977,1.8325
7.40557,1.9345
7.41345,1.9685
7.42133,1.9138
7.42921,1.7924
7.43709,1.8633
7.44497,1.8751
7.45284,1.7559
7.46072,1.6902
7.4686,1.8976
7.47648,1.7482
7.48436,1.7243
7.49224,1.7634
7.50011,1.716
7.50799,1.8865
7.51587,1.7782
7.52375,1.6721
7.53163,1.8062
7.53951,1.7634
7.54738,1.6812
7.55526,1.7782
7.56314,1.7924
7.57102,1.7324
7.5789,1.7404
7.58677,1.7324
7.59465,1.716
7.60253,1.5911
7.61041,1.7243
7.61829,1.6812
7.62617,1.7853
7.63404,1.6128
7.64192,1.7482
7.6498,1.6232
7.65768,1.7243
7.66556,1.6628
7.67344,1.6335
7.68131,1.6128
7.68919,1.6812
7.69707,1.5911
7.70495,1.7482
7.71283,1.6232
7.72071,1.716
7.72858,1.5185
7.73646,1.4771
7.74434,1.5682
7.75222,1.5441
7.7601,1.6232
7.76797,1.6128
7.77585,1.5441
7.78373,1.7243
7.79161,1.5911
7.79949,1.6232
7.80737,1.6021
7.81524,1.6128
7.82312,1.5798
7.831,1.6532
7.83888,1.6021
7.84676,1.6232
7.85464,1.5185
7.86251,1.6628
7.87039,1.3979
7.87827,1.5315
7.88615,1.5441
7.89403,1.5563
7.90191,1.3802
7.90978,1.3424
7.91766,1.4914
7.92554,1.5798
7.93342,1.2553
7.9413,1.2553
7.94918,1.4914
7.95705,1.3802
7.96493,1.4472
7.97281,1.4472
7.98069,1.3979
7.98857,1.3617
7.99644,1.2553
8.00432,1.3802
8.0122,1.2304
8.02008,1.3424
8.02796,1.4314
8.03584,1.301
8.04371,1.1761
8.05159,1.1761
8.05947,1.4472
8.06735,1.1139
8.07523,1.2304
8.08311,1.3424
8.09098,1.0792
8.09886,1.1139
8.10674,1.1139
8.11462,1.2304
8.1225,0.95424
8.13038,1.1461
8.13825,1.1761
8.14613,1.2553
8.15401,1.0792
8.16189,1.2041
8.16977,1.3222
8.17765,1.2553
8.18552,1.1461
8.1934,1.1461
