KEV,INTENSITY
0.39325,4.7859
0.40096,4.7488
0.40867,4.7314
0.41639,4.6854
0.4241,4.652
0.43181,4.6107
0.43952,4.5781
0.44723,4.5448
0.45494,4.5037
0.46265,4.4618
0.47036,4.4429
0.47807,4.3988
0.48578,4.3731
0.49349,4.3322
0.5012,4.2933
0.50892,4.2566
0.51663,4.2254
0.52434,4.1874
0.53205,4.1712
0.53976,4.1343
0.54747,4.1015
0.55518,4.0618
0.56289,4.0331
0.5706,3.9976
0.57831,3.96
0.58602,3.9306
0.59373,3.9259
0.60145,3.8653
0.60916,3.8516
0.61687,3.8173
0.62458,3.7828
0.63229,3.7597
0.64,3.7197
0.64771,3.7049
0.65542,3.6905
0.66313,3.6476
0.67084,3.631
0.67855,3.5986
0.68627,3.5651
0.69398,3.5395
0.70169,3.5269
0.7094,3.4968
0.71711,3.4993
0.72482,3.4467
0.73253,3.4366
0.74024,3.3464
0.74795,3.2579
0.75566,3.2674
0.76337,3.3524
0.77108,3.3341
0.7788,3.333
0.78651,3.3147
0.79422,3.2982
0.80193,3.2721
0.80964,3.262
0.81735,3.2536
0.82506,3.2127
0.83277,3.2098
0.84048,3.2052
0.84819,3.1414
0.8559,3.1635
0.86361,3.1433
0.87133,3.1099
0.87904,3.1069
0.88675,3.077
0.89446,3.0962
0.90217,3.0934
0.90988,3.05
0.91759,3.0406
0.9253,3.0382
0.93301,3.0137
0.94072,2.9845
0.94843,2.9903
0.95614,2.9699
0.96386,2.9934
0.97157,2.96
0.97928,2.9499
0.98699,2.9263
0.9947,2.9469
1.00241,2.9122
1.01012,2.8965
1.01783,2.9031
1.02554,2.9222
1.03325,2.8904
1.04096,2.8739
1.04867,2.9031
1.05639,2.8525
1.0641,2.8267
1.07181,2.8506
1.07952,2.8426
1.08723,2.8344
1.09494,2.7938
1.10265,2.8136
1.11036,2.7649
1.11807,2.8109
1.12578,2.7612
1.13349,2.7832
1.1412,2.7559
1.14892,2.7657
1.15663,2.7235
1.16434,2.7202
1.17205,2.7332
1.17976,2.7033
1.18747,2.7168
1.19518,2.6812
1.20289,2.7067
1.2106,2.6776
1.21831,2.6821
1.22602,2.6628
1.23373,2.6425
1.24145,2.6304
1.24916,2.6263
1.25687,2.6149
1.26458,2.5763
1.27229,2.6096
1.28,2.5694
1.28771,2.567
1.29542,2.5786
1.30313,2.5302
1.31084,2.5051
1.31855,2.5198
1.32627,2.5051
1.33398,2.5289
1.34169,2.5051
1.3494,2.525
1.35711,2.5051
1.36482,2.5211
1.37253,2.5224
1.38024,2.4942
1.38795,2.5366
1.39566,2.5276
1.40337,2.5092
1.41108,2.49
1.4188,2.5237
1.42651,2.4942
1.43422,2.5302
1.44193,2.4639
1.44964,2.4362
1.45735,2.5403
1.46506,2.415
1.47277,2.4654
1.48048,2.4425
1.48819,2.5092
1.4959,2.4997
1.50361,2.4639
1.51133,2.4031
1.51904,2.4871
1.52675,2.5185
1.53446,2.4609
1.54217,2.4265
1.54988,2.4609
1.55759,2.4393
1.5653,2.444
1.57301,2.4487
1.58072,2.4683
1.58843,2.433
1.59614,2.433
1.60386,2.3927
1.61157,2.4099
1.61928,2.382
1.62699,2.3945
1.6347,2.382
1.64241,2.4232
1.65012,2.4099
1.65783,2.4099
1.66554,2.3802
1.67325,2.3579
1.68096,2.3263
1.68867,2.3345
1.69639,2.2648
1.7041,2.2041
1.71181,2.2672
1.71952,2.3222
1.72723,2.2718
1.73494,2.3404
1.74265,2.3054
1.75036,2.248
1.75807,2.233
1.76578,2.3096
1.77349,2.2553
1.7812,2.248
1.78892,2.2504
1.79663,2.3139
1.80434,2.243
1.81205,2.2648
1.81976,2.1614
1.82747,2.2504
1.83518,2.2279
1.84289,2.1703
1.8506,2.1644
1.85831,2.1584
1.86602,2.1523
1.87373,2.1553
1.88145,2.1523
1.88916,2.1761
1.89687,2.1703
1.90458,2.1271
1.91229,2.0899
1.92,2.1875
1.92771,2.1004
1.93542,2.1139
1.94313,2.0899
1.95084,2.1072
1.95855,2.0645
1.96627,2.1173
1.97398,2.1553
1.98169,2.0453
1.9894,2.0969
1.99711,2.0212
2.00482,2.0414
2.01253,2.1072
2.02024,2.0531
2.02795,2.0334
2.03566,2.0682
2.04337,2.0492
2.05108,1.9294
2.0588,2.0414
2.06651,2.0294
2.07422,2.0645
2.08193,2.1004
2.08964,2.0253
2.09735,2.0253
2.10506,2.0864
2.11277,2.0334
2.12048,2.1004
2.12819,2.0043
2.1359,2.0043
2.14361,1.9395
2.15133,2.0645
2.15904,1.9731
2.16675,2.017
2.17446,2.0128
2.18217,1.9956
2.18988,2
2.19759,1.9395
2.2053,1.9395
2.21301,2.0128
2.22072,1.9395
2.22843,1.8921
2.23614,2.0645
2.24386,1.9823
2.25157,1.9777
2.25928,1.9912
2.26699,1.9294
2.2747,1.9868
2.28241,1.9638
2.29012,1.9345
2.29783,1.9542
2.30554,1.9445
2.31325,1.9685
2.32096,1.9294
2.32867,1.9685
2.33639,1.8808
2.3441,1.8633
2.35181,1.9638
2.35952,1.9731
2.36723,1.9445
2.37494,1.9542
2.38265,1.959
2.39036,1.8976
2.39807,1.8195
2.40578,1.8808
2.41349,1.8633
2.4212,1.8062
2.42892,1.8195
2.43663,1.7924
2.44434,1.8261
2.45205,1.7076
2.45976,1.7634
2.46747,1.7924
2.47518,1.8388
2.48289,1.6902
2.4906,1.7924
2.49831,1.7853
2.50602,1.7853
2.51373,1.8261
2.52145,1.6902
2.52916,1.7076
2.53687,1.7243
2.54458,1.6902
2.55229,1.7993
2.56,1.7324
2.56771,1.699
2.57542,1.6902
2.58313,1.6812
2.59084,1.6628
2.59855,1.6902
2.60627,1.5441
2.61398,1.7559
2.62169,1.5911
2.6294,1.6128
2.63711,1.7324
2.64482,1.699
2.65253,1.6021
2.66024,1.6128
2.66795,1.4314
2.67566,1.6335
2.68337,1.7243
2.69108,1.6335
2.6988,1.6021
2.70651,1.6335
2.71422,1.5682
2.72193,1.5185
2.72964,1.6435
2.73735,1.6435
2.74506,1.6435
2.75277,1.6721
2.76048,1.6435
2.76819,1.3979
2.7759,1.6532
2.78361,1.6128
2.79133,1.6232
2.79904,1.7634
2.80675,1.6721
2.81446,1.6335
2.82217,1.5441
2.82988,1.6721
2.83759,1.7243
2.8453,1.7243
2.85301,1.7243
2.86072,1.6628
2.86843,1.7404
2.87614,1.7559
2.88386,1.8129
2.89157,1.6335
2.89928,1.7782
2.90699,1.6532
2.9147,1.7782
2.92241,1.6721
2.93012,1.6812
2.93783,1.8451
2.94554,1.6128
2.95325,1.7482
2.96096,1.8129
2.96867,1.8573
2.97639,1.7993
2.9841,1.8451
2.99181,1.8129
2.99952,1.8261
3.00723,1.8261
3.01494,1.7634
3.02265,1.7709
3.03036,1.7782
3.03807,1.7634
3.04578,1.9542
3.05349,1.8808
3.0612,1.9731
3.06892,1.9031
3.07663,1.9085
3.08434,1.9243
3.09205,1.9542
3.09976,1.9294
3.10747,1.9191
3.11518,1.8976
3.12289,2
3.1306,1.9031
3.13831,1.9542
3.14602,2.0086
3.15373,2.0253
3.16145,2.0374
3.16916,1.9777
3.17687,2.0086
3.18458,2.0492
3.19229,2.0492
3.2,2.0899
3.20771,2.0086
3.21542,2.0253
3.22313,2.017
3.23084,2.0453
3.23855,2.0453
3.24627,2.0719
3.25398,2.0719
3.26169,2.0864
3.2694,2.1584
3.27711,2.1106
3.28482,2.0755
3.29253,2.0334
3.30024,2.1106
3.30795,2.1875
3.31566,2.2122
3.32337,2.2068
3.33108,2.2041
3.3388,2.2122
3.34651,2.1614
3.35422,2.2122
3.36193,2.1732
3.36964,2.2041
3.37735,2.3096
3.38506,2.2529
3.39277,2.3032
3.40048,2.3201
3.40819,2.3263
3.4159,2.3345
3.42361,2.3243
3.43133,2.3201
3.43904,2.4014
3.44675,2.3892
3.45446,2.4183
3.46217,2.4116
3.46988,2.4393
3.47759,2.4955
3.4853,2.5065
3.49301,2.4728
3.50072,2.4814
3.50843,2.5353
3.51614,2.5428
3.52386,2.5682
3.53157,2.5705
3.53928,2.5705
3.54699,2.567
3.5547,2.6243
3.56241,2.5899
3.57012,2.5682
3.57783,2.5877
3.58554,2.6937
3.59325,2.6201
3.60096,2.6522
3.60867,2.6075
3.61639,2.6345
3.6241,2.616
3.63181,2.5391
3.63952,2.4654
3.64723,2.5465
3.65494,2.6599
3.66265,2.6628
3.67036,2.6599
3.67807,2.6739
3.68578,2.6656
3.69349,2.6884
3.7012,2.6693
3.70892,2.6484
3.71663,2.6646
3.72434,2.6294
3.73205,2.6385
3.73976,2.5988
3.74747,2.6314
3.75518,2.5933
3.76289,2.617
3.7706,2.6304
3.77831,2.5527
3.78602,2.5694
3.79373,2.5866
3.80145,2.5416
3.80916,2.5276
3.81687,2.525
3.82458,2.5575
3.83229,2.5065
3.84,2.5079
3.84771,2.49
3.85542,2.4843
3.86313,2.5105
3.87084,2.4955
3.87855,2.5237
3.88627,2.4362
3.89398,2.4409
3.90169,2.4564
3.9094,2.4116
3.91711,2.356
3.92482,2.444
3.93253,2.3909
3.94024,2.3444
3.94795,2.3118
3.95566,2.3692
3.96337,2.3674
3.97108,2.2833
3.9788,2.3201
3.98651,2.2967
3.99422,2.1987
4.00193,2.2068
4.00964,2.2529
4.01735,2.2695
4.02506,2.2504
4.03277,2.2253
4.04048,2.1492
4.04819,2.1673
4.0559,2.233
4.06361,2.1644
4.07133,2.2405
4.07904,2.1761
4.08675,2.1072
4.09446,2.1206
4.10217,2.2227
4.10988,2.1303
4.11759,2.2279
4.1253,2.1399
4.13301,2.1367
4.14072,2.0864
4.14843,2.0755
4.15614,2.0755
4.16386,2.0531
4.17157,2.1492
4.17928,2.1173
4.18699,2.1303
4.1947,2.1038
4.20241,2.0531
4.21012,2.1818
4.21783,2.1004
4.22554,2.1673
4.23325,2.1644
4.24096,2.0453
4.24867,2.1399
4.25639,2.1303
4.2641,2.0607
4.27181,2.0334
4.27952,2.0531
4.28723,2.1139
4.29494,2.1584
4.30265,2.0682
4.31036,2.1903
4.31807,2.2014
4.32578,2.1106
4.33349,2.1038
4.3412,2.1303
4.34892,2.1847
4.35663,2.2014
4.36434,2.1903
4.37205,2.1492
4.37976,2.2095
4.38747,2.2695
4.39518,2.238
4.40289,2.2041
4.4106,2.1703
4.41831,2.2648
4.42602,2.2718
4.43373,2.2601
4.44145,2.2122
4.44916,2.2201
4.45687,2.2068
4.46458,2.1399
4.47229,2.1931
4.48,2.2945
4.48771,2.233
4.49542,2.2455
4.50313,2.243
4.51084,2.2718
4.51855,2.2553
4.52627,2.2068
4.53398,2.2504
4.54169,2.2455
4.5494,2.1847
4.55711,2.1987
4.56482,2.2304
4.57253,2.248
4.58024,2.1673
4.58795,2.1818
4.59566,2.1206
4.60337,2.1139
4.61108,1.9823
4.6188,1.9638
4.62651,2.1139
4.63422,2.2014
4.64193,2.1139
4.64964,2.0645
4.65735,2.1106
4.66506,2.1335
4.67277,2.0934
4.68048,1.9777
4.68819,2.0414
4.6959,2.0969
4.70361,2.0531
4.71133,1.9685
4.71904,1.9912
4.72675,2.0755
4.73446,2.0212
4.74217,2.0212
4.74988,2.0253
4.75759,2.0414
4.7653,1.9445
4.77301,1.9395
4.78072,1.8976
4.78843,1.9823
4.79614,1.9085
4.80386,1.8921
4.81157,1.8921
4.81928,1.9395
4.82699,1.8751
4.8347,1.9777
4.84241,1.9731
4.85012,1.9191
4.85783,1.9345
4.86554,1.9494
4.87325,1.8865
4.88096,1.8388
4.88867,1.8751
4.89639,1.8261
4.9041,1.8808
4.91181,1.7993
4.91952,1.8692
4.92723,1.9445
4.93494,1.8976
4.94265,1.8388
4.95036,1.8633
4.95807,1.9638
4.96578,1.8451
4.97349,1.8921
4.9812,1.8195
4.98892,1.8692
4.99663,1.9138
5.00434,1.8976
5.01205,1.7924
5.01976,1.9395
5.02747,1.7993
5.03518,1.8573
5.04289,1.7404
5.0506,1.8388
5.05831,1.8633
5.06602,1.7404
5.07373,1.8062
5.08145,1.9823
5.08916,1.9085
5.09687,1.8573
5.10458,1.9138
5.11229,1.8976
5.12,1.7993
5.12771,1.9395
5.13542,1.8921
5.14313,1.9191
5.15084,1.8062
5.15855,1.8976
5.16627,1.9494
5.17398,1.8751
5.18169,1.8751
5.1894,1.9085
5.19711,1.8451
5.20482,1.9085
5.21253,1.8865
5.22024,1.8451
5.22795,1.9868
5.23566,1.9777
5.24337,1.9395
5.25108,1.9542
5.2588,1.8921
5.26651,1.9345
5.27422,2.0374
5.28193,1.9542
5.28964,1.9868
5.29735,1.9956
5.30506,1.9777
5.31277,2.0492
5.32048,1.9685
5.32819,1.9638
5.3359,1.9395
5.34361,2.0414
5.35133,1.9685
5.35904,2.0453
5.36675,1.9956
5.37446,2.0414
5.38217,1.9395
5.38988,2.0492
5.39759,2.0334
5.4053,2.0253
5.41301,1.9956
5.42072,2.0645
5.42843,1.9494
5.43614,2.0128
5.44386,2.0569
5.45157,2
5.45928,2.0334
5.46699,2.0212
5.4747,2.0492
5.48241,2.0719
5.49012,1.9638
5.49783,2.0334
5.50554,2.0374
5.51325,2.0212
5.52096,1.9294
5.52867,2.0607
5.53639,1.959
5.5441,2.0682
5.55181,2.0086
5.55952,1.9445
5.56723,1.9638
5.57494,1.9731
5.58265,2.0719
5.59036,2.1139
5.59807,2.017
5.60578,1.9731
5.61349,2.0607
5.6212,2.0755
5.62892,2.1038
5.63663,2.0253
5.64434,2.0531
5.65205,2.1492
5.65976,2.0334
5.66747,2.0569
5.67518,2.0253
5.68289,1.9868
5.6906,1.9191
5.69831,2.0414
5.70602,2.0569
5.71373,2.0934
5.72145,2.0719
5.72916,2.1072
5.73687,2.0934
5.74458,2.1173
5.75229,2.1492
5.76,2.1732
5.76771,2.1367
5.77542,2.1139
5.78313,2.1461
5.79084,2.2122
5.79855,2.2279
5.80627,2.2068
5.81398,2.1818
5.82169,2.2227
5.8294,2.2095
5.83711,2.2695
5.84482,2.1818
5.85253,2.2355
5.86024,2.2355
5.86795,2.3201
5.87566,2.2856
5.88337,2.2718
5.89108,2.3284
5.8988,2.3541
5.90651,2.3444
5.91422,2.3243
5.92193,2.3579
5.92964,2.3404
5.93735,2.3598
5.94506,2.4166
5.95277,2.4314
5.96048,2.4579
5.96819,2.4298
5.9759,2.4564
5.98361,2.4997
5.99133,2.4518
5.99904,2.4609
6.00675,2.4914
6.01446,2.5403
6.02217,2.567
6.02988,2.5353
6.03759,2.5843
6.0453,2.5575
6.05301,2.5988
6.06072,2.5944
6.06843,2.5821
6.07614,2.6395
6.08386,2.7101
6.09157,2.6739
6.09928,2.7067
6.10699,2.7574
6.1147,2.699
6.12241,2.7177
6.13012,2.752
6.13783,2.7543
6.14554,2.786
6.15325,2.8261
6.16096,2.8319
6.16867,2.7952
6.17639,2.8248
6.1841,2.8388
6.19181,2.8704
6.19952,2.8739
6.20723,2.902
6.21494,2.8802
6.22265,2.9133
6.23036,2.942
6.23807,2.942
6.24578,2.935
6.25349,2.946
6.2612,2.9355
6.26892,2.9605
6.27663,2.9841
6.28434,3.0073
6.29205,2.9872
6.29976,2.9872
6.30747,2.9934
6.31518,2.9854
6.32289,2.9841
6.3306,3.0286
6.33831,3.0204
6.34602,3.0366
6.35373,3.0216
6.36145,3.0175
6.36916,3.0077
6.37687,3.0253
6.38458,3.0542
6.39229,3.0426
6.4,3.0386
6.40771,3.0149
6.41542,3.0128
6.42313,3.0224
6.43084,3.0133
6.43855,2.9827
6.44627,2.9974
6.45398,3.0378
6.46169,2.9939
6.4694,2.9832
6.47711,3.0162
6.48482,2.9823
6.49253,2.9571
6.50024,2.9713
6.50795,2.9768
6.51566,3.0069
6.52337,2.9745
6.53108,2.9741
6.5388,2.9232
6.54651,2.938
6.55422,2.944
6.56193,2.9096
6.56964,2.8842
6.57735,2.9222
6.58506,2.8814
6.59277,2.8842
6.60048,2.8585
6.60819,2.7745
6.6159,2.6998
6.62361,2.7559
6.63133,2.8451
6.63904,2.8633
6.64675,2.8603
6.65446,2.8871
6.66217,2.8287
6.66988,2.8751
6.67759,2.8439
6.6853,2.8109
6.69301,2.8109
6.70072,2.837
6.70843,2.8215
6.71614,2.8228
6.72386,2.8156
6.73157,2.8189
6.73928,2.7973
6.74699,2.8543
6.7547,2.7846
6.76241,2.7945
6.77012,2.7716
6.77783,2.8274
6.78554,2.7952
6.79325,2.8149
6.80096,2.8176
6.80867,2.8312
6.81639,2.8136
6.8241,2.8222
6.83181,2.8338
6.83952,2.8331
6.84723,2.8096
6.85494,2.8189
6.86265,2.8222
6.87036,2.7931
6.87807,2.828
6.88578,2.8426
6.89349,2.8
6.9012,2.8261
6.90892,2.8351
6.91663,2.8142
6.92434,2.85
6.93205,2.7832
6.93976,2.7825
6.94747,2.8537
6.95518,2.8109
6.96289,2.8055
6.9706,2.8306
6.97831,2.8451
6.98602,2.8209
6.99373,2.7832
7.00145,2.7745
7.00916,2.7574
7.01687,2.7767
7.02458,2.7672
7.03229,2.7388
7.04,2.7582
7.04771,2.738
7.05542,2.7267
7.06313,2.711
7.07084,2.752
7.07855,2.6848
7.08627,2.7168
7.09398,2.6803
7.10169,2.6532
7.1094,2.6325
7.11711,2.6628
7.12482,2.5922
7.13253,2.616
7.14024,2.6096
7.14795,2.6085
7.15566,2.5966
7.16337,2.5729
7.17108,2.5563
7.1788,2.5391
7.18651,2.4829
7.19422,2.5038
7.20193,2.4997
7.20964,2.4314
7.21735,2.4533
7.22506,2.4116
7.23277,2.3997
7.24048,2.3674
7.24819,2.3856
7.2559,2.3711
7.26361,2.3222
7.27133,2.3201
7.27904,2.2718
7.28675,2.2553
7.29446,2.29
7.30217,2.2625
7.30988,2.233
7.31759,2.2014
7.3253,2.2455
7.33301,2.1584
7.34072,2.2014
7.34843,2.1106
7.35614,2.1703
7.36386,2.143
7.37157,2.0492
7.37928,2.1004
7.38699,2.0531
7.3947,2.0899
7.40241,2.1038
7.41012,2.0212
7.41783,2.0086
7.42554,2.017
7.43325,2.0414
7.44096,2.0755
7.44867,1.9542
7.45639,1.9542
7.4641,1.9868
7.47181,1.9395
7.47952,2.0212
7.48723,1.9243
7.49494,1.9345
7.50265,1.9731
7.51036,1.8921
7.51807,1.9494
7.52578,1.8976
7.53349,1.7782
7.5412,1.8751
7.54892,1.9243
7.55663,1.9542
7.56434,1.7782
7.57205,1.8976
7.57976,1.7924
7.58747,1.7324
7.59518,1.7853
7.60289,1.8573
7.6106,1.8513
7.61831,1.8325
7.62602,1.9031
7.63373,1.8751
7.64145,1.7924
7.64916,1.7559
7.65687,1.8129
7.66458,1.8062
7.67229,1.7853
7.68,1.8633
7.68771,1.8195
7.69542,1.7993
7.70313,1.8808
7.71084,1.7324
7.71855,1.7924
7.72627,1.7482
7.73398,1.6902
7.74169,1.6128
7.7494,1.7924
7.75711,1.7324
7.76482,1.6721
7.77253,1.7482
7.78024,1.7482
7.78795,1.6335
7.79566,1.716
7.80337,1.6812
7.81108,1.6232
7.8188,1.6812
7.82651,1.6435
7.83422,1.6628
7.84193,1.6335
7.84964,1.6021
7.85735,1.3222
7.86506,1.5911
7.87277,1.6812
7.88048,1.5185
7.88819,1.5315
7.8959,1.5051
7.90361,1.4771
7.91133,1.4771
7.91904,1.5185
7.92675,1.5563
7.93446,1.3979
7.94217,1.3802
7.94988,1.5051
7.95759,1.3979
7.9653,1.5441
7.97301,1.301
7.98072,1.301
7.98843,1.301
7.99614,1.2553
8.00386,1.301
8.01157,1.1139
8.01928,1.3222
8.02699,1.3222
8.0347,1.3424
8.04241,1.3802
8.05012,1.1139
8.05783,1.301
8.06554,1
8.07325,1.3979
8.08096,1.301
8.08867,1.2041
8.09639,1.1761
8.1041,1.2304
8.11181,1.0414
8.11952,1.2041
8.12723,1.1461
8.13494,1.2553
8.14265,1.2041
8.15036,1.1761
8.15807,1.0414
8.16578,1.2041
8.17349,1.301
8.1812,1.301
8.18892,0.90309
8.19663,1.2304
8.20434,1.1139
8.21205,1.1139
8.21976,1.0414
8.22747,1.0414
8.23518,0.77815
8.24289,1.0414
8.2506,1.2041
8.25831,1.1761
8.26602,1.0414
8.27373,1.1761
8.28145,1.3424
8.28916,1.1761
8.29687,1.0414
8.30458,1.2041
8.31229,0.69897
8.32,1.2304
8.32771,1.0414
8.33542,1.2041
8.34313,1.1461
8.35084,1.0414
8.35855,1
8.36627,1.1761
8.37398,1.2041
8.38169,1.0414
8.3894,0.95424
8.39711,1.2553
8.40482,0.90309
8.41253,1.1139
8.42024,1.0792
8.42795,1.2553
8.43566,1.1139
8.44337,1.3222
8.45108,1
8.4588,1.0792
8.46651,1.1139
8.47422,1.1461
8.48193,1.0414
8.48964,1.1461
8.49735,0.95424
8.50506,0.95424
8.51277,0.95424
8.52048,1
8.52819,1.1761
8.5359,1.1461
8.54361,1.0414
8.55133,1.0414
8.55904,1.0414
8.56675,1.1461
8.57446,1.301
8.58217,0.95424
8.58988,1.2041
8.59759,1.0792
8.6053,0.69897
8.61301,1.1139
8.62072,1.1139
8.62843,0.95424
8.63614,1
8.64386,1.0414
8.65157,0.95424
8.65928,0.77815
8.66699,1.0792
8.6747,1
8.68241,1
8.69012,1.1461
8.69783,0.95424
8.70554,1.0414
8.71325,1.1139
8.72096,1.1461
8.72867,0.60206
8.73639,0.95424
8.7441,1.2304
8.75181,1
8.75952,0.95424
8.76723,0.95424
8.77494,1
8.78265,1.1761
8.79036,0.90309
8.79807,1.2553
8.80578,0.77815
8.81349,0.95424
8.8212,0.77815
8.82892,0.60206
8.83663,1.2041
8.84434,0.90309
8.85205,1.0414
8.85976,1
8.86747,1.2304
8.87518,0.90309
8.88289,1.1139
8.8906,0.95424
8.89831,1.0792
8.90602,0.90309
8.91373,1.1139
8.92145,1.2041
8.92916,0.8451
8.93687,1.0792
8.94458,0.90309
8.95229,1.0414
8.96,1.2553
8.96771,1.2788
8.97542,1
8.98313,1.0414
8.99084,0.95424
8.99855,1
9.00627,1.1139
9.01398,0.90309
9.02169,0.90309
9.0294,1
9.03711,1.0792
9.04482,1.0792
9.05253,0.95424
9.06024,1.0414
9.06795,1.1139
9.07566,1.1761
9.08337,0.95424
9.09108,0.8451
9.0988,0.77815
9.10651,0.60206
9.11422,1.0792
9.12193,1.2041
9.12964,1.1461
9.13735,1.0414
9.14506,0.90309
9.15277,1.0414
9.16048,1.0414
9.16819,1.1461
9.1759,1.0414
9.18361,1.0414
9.19133,0.77815
9.19904,1.1139
9.20675,1.2041
9.21446,0.77815
9.22217,1.2304
9.22988,1.0414
9.23759,1.1461
9.2453,0.8451
9.25301,1.0792
9.26072,1.1461
9.26843,1
9.27614,1.2304
9.28386,1.0792
9.29157,1.2041
9.29928,1.1139
9.30699,0.8451
9.3147,1.1761
9.32241,1.1761
9.33012,0.8451
9.33783,1.1761
9.34554,0.90309
9.35325,1.0414
9.36096,1.2041
9.36867,0.8451
9.37639,0.95424
9.3841,1.1139
9.39181,1
9.39952,0.95424
9.40723,0.8451
9.41494,0.90309
9.42265,1.0414
9.43036,1.2041
9.43807,0.8451
9.44578,0.8451
9.45349,1.0792
9.4612,0.95424
9.46892,0.90309
9.47663,1.1139
9.48434,0.8451
9.49205,1.0414
9.49976,0.77815
9.50747,0.90309
9.51518,1
9.52289,0.90309
9.5306,0.95424
9.53831,1.1139
9.54602,0.95424
9.55373,0.77815
9.56145,0.95424
9.56916,1
9.57687,1.0414
9.58458,0.69897
9.59229,0.8451
9.6,1.0414
9.60771,1
9.61542,1
9.62313,1.0414
9.63084,1.1461
9.63855,1.1761
9.64627,1.0792
9.65398,0.8451
9.66169,0.77815
9.6694,0.69897
9.67711,1
9.68482,0.8451
9.69253,1
9.70024,1.1461
9.70795,1
9.71566,0.8451
9.72337,0.90309
9.73108,0.95424
9.7388,0.8451
9.74651,1.0414
9.75422,0.95424
9.76193,0.95424
9.76964,1.0792
9.77735,0.60206
9.78506,0.77815
9.79277,0.95424
9.80048,0.8451
9.80819,0.95424
9.8159,0.47712
9.82361,1.0414
9.83133,0.77815
9.83904,1.1461
9.84675,0.95424
9.85446,0.8451
9.86217,0.69897
9.86988,0.47712
9.87759,0.47712
9.8853,0.90309
9.89301,0.95424
9.90072,0.8451
9.90843,0.90309
9.91614,0.47712
9.92386,0.90309
9.93157,0.90309
9.93928,0.90309
9.94699,1
9.9547,0.90309
9.96241,0.8451
9.97012,0.90309
9.97783,1.0414
9.98554,0.8451
9.99325,0.60206
10.00096,1.1461
10.00867,0.8451
10.01639,0.90309
10.0241,0.69897
10.03181,0.69897
10.03952,0.95424
10.04723,0.77815
10.05494,0.60206
10.06265,0.90309
10.07036,0.90309
10.07807,0.60206
10.08578,0.77815
10.09349,0.69897
10.1012,1.1461
10.10892,0.60206
10.11663,0.90309
10.12434,0.90309
10.13205,0.8451
10.13976,1.0414
10.14747,0.8451
10.15518,0.8451
10.16289,0.90309
10.1706,1.1461
10.17831,0.69897
10.18602,1.0792
10.19373,0.90309
10.20145,0.95424
10.20916,0.30103
10.21687,1
10.22458,0.8451
10.23229,0.95424
10.24,0.69897
10.24771,0.69897
10.25542,0.8451
10.26313,0.95424
10.27084,0.90309
10.27855,0.30103
10.28627,1.0414
10.29398,0.60206
10.30169,0.77815
10.3094,0.47712
10.31711,0.47712
10.32482,0.77815
10.33253,0.8451
10.34024,0.47712
10.34795,0.77815
10.35566,0.77815
10.36337,0.47712
10.37108,0.30103
10.3788,1
10.38651,0.8451
10.39422,0.8451
10.40193,0.47712
10.40964,0.69897
10.41735,0.77815
10.42506,1
10.43277,0.90309
10.44048,0.47712
10.44819,0.69897
10.4559,0.69897
10.46361,1.1461
10.47133,0.95424
10.47904,0.8451
10.48675,1.0414
10.49446,0.60206
10.50217,0.69897
10.50988,0.8451
10.51759,0.95424
10.5253,0.77815
10.53301,0.8451
10.54072,0.95424
10.54843,0.8451
10.55614,0.77815
10.56386,0.90309
10.57157,0.8451
10.57928,1.2041
10.58699,0.90309
10.5947,0.90309
10.60241,1
10.61012,0.8451
10.61783,0.8451
10.62554,0.95424
10.63325,0.77815
10.64096,1.0414
10.64867,0.95424
10.65639,0.90309
10.6641,0.90309
10.67181,0.77815
10.67952,0.90309
10.68723,1.0792
10.69494,0.60206
10.70265,0.8451
10.71036,0.95424
10.71807,1.0414
10.72578,0.95424
10.73349,0.69897
10.7412,1.0414
10.74892,0.95424
10.75663,0.95424
10.76434,0.95424
10.77205,0.95424
10.77976,0.69897
10.78747,0.90309
10.79518,1.1139
10.80289,0.95424
10.8106,0.60206
10.81831,0.90309
10.82602,0.90309
10.83373,1
10.84145,0.77815
10.84916,0.8451
10.85687,0.69897
10.86458,1.0414
10.87229,0.90309
10.88,0.69897
10.88771,0.60206
10.89542,0.90309
10.90313,1
10.91084,0.8451
10.91855,1
10.92627,0.95424
10.93398,0.69897
10.94169,0.69897
10.9494,0.69897
10.95711,0.60206
10.96482,0.90309
10.97253,0.8451
10.98024,1.2553
10.98795,1.0792
10.99566,0.77815
11.00337,0.69897
11.01108,0.60206
11.0188,0.60206
11.02651,0.47712
11.03422,0.69897
11.04193,0.95424
11.04964,0.60206
11.05735,0.30103
11.06506,0.8451
11.07277,0.90309
11.08048,0.47712
11.08819,0.60206
11.0959,0.60206
11.10361,0.60206
11.11133,0.75258
11.11904,0.90309
11.12675,0.8451
11.13446,0.90309
11.14217,0.69897
11.14988,0.47712
11.15759,0.60206
11.1653,0.60206
11.17301,0.47712
11.18072,0.77815
11.18843,0.8451
11.19614,0.95424
11.20386,0.90309
11.21157,0.84062
11.21928,0.77815
11.22699,0.69897
11.2347,0.8451
11.24241,0.90309
11.25012,0.69897
11.25783,0.69897
11.26554,0.8451
11.27325,0.60206
11.28096,0.77815
11.28867,0.8451
11.29639,0.95424
11.3041,0.77815
11.31181,0.90309
11.31952,0.95424
11.32723,0.69897
11.33494,0.77815
11.34265,0.69897
11.35036,0.69897
11.35807,0.8451
11.36578,0.47712
11.37349,0.77815
11.3812,0.47712
11.38892,0.77815
11.39663,0.8451
11.40434,0.77815
11.41205,1.0414
11.41976,1.0792
11.42747,0.77815
11.43518,0.95424
11.44289,0.71568
11.4506,0.47712
11.45831,0.95424
11.46602,0.8451
11.47373,0.47712
11.48145,0.8451
11.48916,0.8451
11.49687,0.77815
11.50458,0.69897
11.51229,0.69897
11.52,0.80103
11.52771,0.90309
11.53542,0.69897
11.54313,0.30103
11.55084,0.8451
11.55855,0.77815
11.56627,0.8451
